'lit_2782.nad' 'Jun 09 2014 11:39' 'I'          4.    1  'TIME'   51  'RAW'
  Filename         Date            Scan       Mon    Prf  Base   #pts  Type    
20 mT wafer 916 LHHTML JED191                       F1: OFF  F2: OFF 
 460    1  500  512 608 512   0   4.7500  0.00000 0.00000   0.00000    1 
 Collimation      Mosaic    Wavelength   T-Start   Incr.   H-field #Det    
  1       1.22935    0.02459    2.45871
  2       1.22935    0.02459    2.45871
  3       0.00000    0.00000    0.00000
  4       0.00000    0.00000    0.00000
  5       3.68806    0.07376    7.37612
  6       4.91741    0.09835    9.83482
 Mot:    Start       Step      End
     A1        A2        A5        A6     MIN      MONITOR      COUNTS   _q    _w  
    1.22660     1.23000     3.68680     4.91840 0.07       21433        3664     0.10000     1.51197 
    1.25140     1.25480     3.76110     5.01670 0.07       21614        3748     0.10200     1.54221 
    1.27680     1.27890     3.83480     5.11500 0.07       21768        3905     0.10400     1.57245 
    1.30160     1.30340     3.90840     5.21330 0.06       21975        4007     0.10600     1.60269 
    1.32710     1.32790     3.98270     5.31160 0.06       22102        3969     0.10800     1.63293 
    1.35060     1.35240     4.05640     5.40990 0.06       22241        4185     0.11000     1.66317 
    1.37540     1.37690     4.13000     5.50820 0.06       22632        4370     0.11200     1.69341 
    1.39900     1.40200     4.20430     5.60650 0.06       22682        4545     0.11400     1.72365 
    1.42380     1.42650     4.27800     5.70510 0.06       22923        4530     0.11600     1.75389 
    1.44860     1.45100     4.35170     5.80340 0.06       23229        4646     0.11800     1.78413 
    1.47280     1.47550     4.42530     5.90190 0.06       23182        4784     0.12000     1.81437 
    1.49760     1.50000     4.49900     6.00020 0.06       23696        4850     0.12200     1.84461 
    1.52300     1.52450     4.57260     6.09850 0.06       23544        5014     0.12400     1.87485 
    1.54660     1.54900     4.64690     6.19680 0.06       23962        5074     0.12600     1.90508 
    1.57140     1.57380     4.72060     6.29510 0.06       23773        5358     0.12800     1.93532 
    1.59680     1.59860     4.79360     6.39340 0.06       23786        5348     0.13000     1.96556 
    1.62040     1.62340     4.86730     6.49200 0.06       24441        5526     0.13200     1.99580 
    1.64580     1.64820     4.94090     6.59020 0.06       24642        5720     0.13400     2.02604 
    1.67060     1.67240     5.01460     6.68850 0.06       24393        5815     0.13600     2.05628 
    1.69540     1.69660     5.08830     6.78680 0.06       24919        6009     0.13800     2.08652 
    1.71960     1.72110     5.16260     6.88490 0.06       25049        6072     0.14000     2.11676 
    1.74440     1.74560     5.23690     6.98370 0.06       25289        6348     0.14200     2.14700 
    1.76860     1.77010     5.31050     7.08170 0.06       25267        6415     0.14400     2.17724 
    1.79280     1.79490     5.38420     7.18030 0.06       25217        6563     0.14600     2.20748 
    1.81760     1.81970     5.45780     7.27860 0.06       25889        6822     0.14800     2.23772 
    1.84110     1.84450     5.53150     7.37710 0.06       26056        6875     0.15000     2.26796 
    1.86590     1.86870     5.60580     7.47540 0.06       26352        7058     0.15200     2.29820 
    1.89070     1.89350     5.67950     7.57400 0.05       26396        7114     0.15400     2.32844 
    1.91490     1.91800     5.75310     7.67200 0.05       26864        7283     0.15600     2.35868 
    1.93970     1.94250     5.82680     7.77030 0.05       26515        7482     0.15800     2.38892 
    1.96450     1.96730     5.90040     7.86840 0.05       26493        7624     0.16000     2.41916 
    1.98810     1.99180     5.97410     7.96720 0.05       26887        7803     0.16200     2.44939 
    2.01350     2.01660     6.04840     8.06550 0.05       27319        8033     0.16400     2.47963 
    2.03830     2.04110     6.12140     8.16380 0.05       27245        8142     0.16600     2.50987 
    2.06380     2.06560     6.19510     8.26210 0.05       27563        8366     0.16800     2.54011 
    2.08860     2.08970     6.26870     8.36040 0.05       27426        8489     0.17000     2.57035 
    2.11210     2.11420     6.34240     8.45870 0.05       27907        8718     0.17200     2.60059 
    2.13690     2.13900     6.41610     8.55720 0.05       28331        8874     0.17400     2.63083 
    2.16170     2.16380     6.49030     8.65530 0.05       28420        8965     0.17600     2.66107 
    2.18590     2.18830     6.56400     8.75380 0.05       28525        9206     0.17800     2.69131 
    2.21010     2.21310     6.63830     8.85210 0.05       28544        9306     0.18000     2.72155 
    2.23490     2.23760     6.71200     8.95070 0.05       28830        9526     0.18200     2.75179 
    2.25910     2.26240     6.78630     9.04900 0.05       29153        9596     0.18400     2.78203 
    2.28450     2.28660     6.85990     9.14730 0.05       29054        9803     0.18600     2.81227 
    2.30810     2.31170     6.93290     9.24530 0.05       29343       10235     0.18800     2.84251 
    2.33350     2.33590     7.00720     9.34360 0.05       29642       10262     0.19000     2.87275 
    2.35830     2.36070     7.08090     9.44220 0.05       29673       10204     0.19200     2.90299 
    2.38250     2.38590     7.15460     9.54070 0.05       29776       10391     0.19400     2.93323 
    2.40730     2.41030     7.22820     9.63900 0.05       30069       10588     0.19600     2.96347 
    2.43270     2.43450     7.30120     9.73730 0.05       30115       10996     0.19800     2.99370 
    2.45690     2.45870     7.37490     9.83560 0.05       30289       10914     0.20000     3.02394 
