'lit_2773.nad' 'Jun 09 2014 01:21' 'I'         10.    1  'TIME'   51  'RAW'
  Filename         Date            Scan       Mon    Prf  Base   #pts  Type    
0.5 mT virgin wafer 916 LHHTML JED191               F1: OFF  F2: OFF 
 460    1  500  512 608 512   0   4.7500  0.00000 0.00000   0.00000    1 
 Collimation      Mosaic    Wavelength   T-Start   Incr.   H-field #Det    
  1       1.22935    0.02459    2.45871
  2       1.22935    0.02459    2.45871
  3       0.00000    0.00000    0.00000
  4       0.00000    0.00000    0.00000
  5       3.68806    0.07376    7.37612
  6       4.91741    0.09835    9.83482
 Mot:    Start       Step      End
     A1        A2        A5        A6     MIN      MONITOR      COUNTS   _q    _w  
    1.22720     1.23000     3.68680     4.91820 0.17       54450        9359     0.10000     1.51197 
    1.25200     1.25480     3.76110     5.01650 0.16       54286        9315     0.10200     1.54221 
    1.27620     1.27890     3.83480     5.11500 0.16       54189        9496     0.10400     1.57245 
    1.30100     1.30340     3.90840     5.21310 0.16       54063        9939     0.10600     1.60269 
    1.32520     1.32790     3.98270     5.31140 0.16       54634        9958     0.10800     1.63293 
    1.35000     1.35240     4.05640     5.40990 0.15       54584        9929     0.11000     1.66317 
    1.37420     1.37690     4.13000     5.50800 0.15       55066       10244     0.11200     1.69341 
    1.39900     1.40200     4.20430     5.60630 0.15       54400       10626     0.11400     1.72365 
    1.42440     1.42650     4.27800     5.70480 0.15       54689       10961     0.11600     1.75389 
    1.44920     1.45100     4.35170     5.80310 0.15       55239       11158     0.11800     1.78413 
    1.47340     1.47550     4.42530     5.90170 0.14       55153       11271     0.12000     1.81437 
    1.49820     1.50000     4.49900     6.00000 0.14       55501       11469     0.12200     1.84461 
    1.52300     1.52450     4.57260     6.09830 0.14       55241       11811     0.12400     1.87485 
    1.54720     1.54900     4.64690     6.19650 0.14       55495       12164     0.12600     1.90508 
    1.57450     1.57380     4.72060     6.29480 0.14       55396       12357     0.12800     1.93532 
    1.59870     1.59860     4.79360     6.39310 0.14       55336       12525     0.13000     1.96556 
    1.62290     1.62340     4.86730     6.49170 0.13       55881       12705     0.13200     1.99580 
    1.64770     1.64820     4.94090     6.59000 0.13       56081       13121     0.13400     2.02604 
    1.67250     1.67210     5.01460     6.68830 0.13       56054       13372     0.13600     2.05628 
    1.69670     1.69660     5.08830     6.78680 0.13       56391       13597     0.13800     2.08652 
    1.72150     1.72110     5.16260     6.88490 0.13       56499       13796     0.14000     2.11676 
    1.74690     1.74560     5.23690     6.98340 0.13       56659       14149     0.14200     2.14700 
    1.77040     1.77010     5.31050     7.08150 0.13       57023       14445     0.14400     2.17724 
    1.79520     1.79460     5.38420     7.18000 0.12       57182       14746     0.14600     2.20748 
    1.82070     1.81970     5.45780     7.27830 0.12       57150       14971     0.14800     2.23772 
    1.84550     1.84450     5.53150     7.37690 0.12       57009       15365     0.15000     2.26796 
    1.86970     1.86870     5.60580     7.47520 0.12       57367       15681     0.15200     2.29820 
    1.89450     1.89350     5.67950     7.57370 0.12       57929       15719     0.15400     2.32844 
    1.91870     1.91800     5.75310     7.67180 0.12       57641       16031     0.15600     2.35868 
    1.94280     1.94250     5.82680     7.77010 0.12       57641       16439     0.15800     2.38892 
    1.96700     1.96730     5.90040     7.86840 0.12       58390       16555     0.16000     2.41916 
    1.99120     1.99180     5.97410     7.96690 0.12       58211       16881     0.16200     2.44939 
    2.01600     2.01660     6.04840     8.06520 0.11       58405       17140     0.16400     2.47963 
    2.04080     2.04110     6.12140     8.16350 0.11       58194       17579     0.16600     2.50987 
    2.06500     2.06560     6.19510     8.26180 0.11       58912       17663     0.16800     2.54011 
    2.08980     2.08970     6.26870     8.36010 0.11       58991       17774     0.17000     2.57035 
    2.11460     2.11420     6.34240     8.45840 0.11       58898       18216     0.17200     2.60059 
    2.13820     2.13900     6.41610     8.55700 0.11       59057       18500     0.17400     2.63083 
    2.16300     2.16380     6.49030     8.65530 0.11       58589       18913     0.17600     2.66107 
    2.18840     2.18830     6.56400     8.75360 0.11       59567       19176     0.17800     2.69131 
    2.21320     2.21310     6.63830     8.85190 0.11       59347       19562     0.18000     2.72155 
    2.23930     2.23760     6.71200     8.95040 0.11       59300       19641     0.18200     2.75179 
    2.26220     2.26240     6.78630     9.04870 0.11       59851       19992     0.18400     2.78203 
    2.28700     2.28660     6.85990     9.14700 0.11       60085       20451     0.18600     2.81227 
    2.31120     2.31170     6.93360     9.24510 0.10       59699       20469     0.18800     2.84251 
    2.33600     2.33590     7.00720     9.34340 0.10       60579       21121     0.19000     2.87275 
    2.36020     2.36070     7.08090     9.44190 0.10       60358       21020     0.19200     2.90299 
    2.38500     2.38590     7.15460     9.54050 0.10       59816       21437     0.19400     2.93323 
    2.40920     2.41030     7.22820     9.63880 0.10       60482       21412     0.19600     2.96347 
    2.43460     2.43450     7.30120     9.73710 0.10       60839       21905     0.19800     2.99370 
    2.45820     2.45870     7.37490     9.83540 0.10       60590       21974     0.20000     3.02394 
