'lit_2779.nbd' 'Jun 09 2014 11:16' 'I'          4.    1  'TIME'  101  'RAW'
  Filename         Date            Scan       Mon    Prf  Base   #pts  Type    
20 mT wafer 916 LHHTML JED191                       F1: ON   F2: OFF 
 460    1  500  512 608 512   0   4.7500  0.00000 0.00000   0.00000    1 
 Collimation      Mosaic    Wavelength   T-Start   Incr.   H-field #Det    
  1       0.73761    0.00492    1.22935
  2       0.73761    0.00492    1.22935
  3       0.00000    0.00000    0.00000
  4       0.00000    0.00000    0.00000
  5       2.21283    0.01475    3.68806
  6       2.95045    0.01967    4.91741
 Mot:    Start       Step      End
     A1        A2        A5        A6     MIN      MONITOR      COUNTS   _q    _w  
    0.73980     0.73790     2.21230     2.95140 0.07       14781          30     0.06000     0.90718 
    0.73980     0.73790     2.22630     2.97070 0.07       14613          34     0.06040     0.91323 
    0.74970     0.74750     2.24160     2.99030 0.07       14699          32     0.06080     0.91928 
    0.74970     0.74750     2.25620     3.01010 0.07       14466          51     0.06120     0.92533 
    0.75970     0.75740     2.27080     3.02970 0.07       14648          24     0.06160     0.93137 
    0.75900     0.75740     2.28540     3.04950 0.07       14705          43     0.06200     0.93742 
    0.76900     0.76700     2.30060     3.06900 0.07       14582          45     0.06240     0.94347 
    0.76900     0.77230     2.31520     3.08890 0.07       14811          35     0.06280     0.94952 
    0.77950     0.77230     2.32980     3.10870 0.07       14795          48     0.06320     0.95557 
    0.77950     0.78160     2.34440     3.12820 0.07       15012          44     0.06360     0.96161 
    0.78880     0.78690     2.35970     3.14780 0.07       14785          36     0.06400     0.96766 
    0.78880     0.78690     2.37430     3.16730 0.07       14812          36     0.06440     0.97371 
    0.79810     0.79710     2.38890     3.18720 0.07       14845          48     0.06480     0.97976 
    0.79810     0.79710     2.40350     3.20670 0.07       14831          64     0.06520     0.98581 
    0.80860     0.80640     2.41870     3.22650 0.07       15070          51     0.06560     0.99185 
    0.80860     0.80640     2.43330     3.24610 0.07       14931          45     0.06600     0.99790 
    0.81730     0.81630     2.44790     3.26590 0.07       14942          50     0.06640     1.00395 
    0.81730     0.81630     2.46250     3.28570 0.07       14834          44     0.06680     1.01000 
    0.82910     0.82630     2.47710     3.30500 0.07       14833          36     0.06720     1.01605 
    0.82910     0.82630     2.49240     3.32480 0.07       14600          51     0.06760     1.02209 
    0.83840     0.83620     2.50700     3.34460 0.07       15021          37     0.06800     1.02814 
    0.83840     0.83620     2.52160     3.36440 0.07       15052          54     0.06840     1.03419 
    0.84710     0.84640     2.53620     3.38400 0.07       15034          43     0.06880     1.04024 
    0.84710     0.84640     2.55140     3.40360 0.06       14919          50     0.06920     1.04628 
    0.85760     0.85570     2.56600     3.42310 0.06       15043          47     0.06960     1.05233 
    0.85760     0.85570     2.58060     3.44320 0.06       14902          41     0.07000     1.05838 
    0.86760     0.86560     2.59530     3.46250 0.06       15188          56     0.07040     1.06443 
    0.86760     0.86560     2.61050     3.48230 0.06       15014          55     0.07080     1.07048 
    0.87810     0.87560     2.62510     3.50190 0.06       15118          57     0.07120     1.07652 
    0.87810     0.87560     2.63970     3.52170 0.06       15105          60     0.07160     1.08257 
    0.88680     0.88580     2.65430     3.54150 0.06       14949          56     0.07200     1.08862 
    0.88680     0.88580     2.66960     3.56100 0.06       14831          53     0.07240     1.09467 
    0.89670     0.89510     2.68420     3.58060 0.06       14932          60     0.07280     1.10072 
    0.89670     0.90040     2.69880     3.60020 0.06       14969          60     0.07320     1.10676 
    0.90660     0.90040     2.71400     3.62000 0.06       15103          64     0.07360     1.11281 
    0.90660     0.91030     2.72800     3.63980 0.06       15205          60     0.07400     1.11886 
    0.91650     0.91030     2.74380     3.65910 0.06       15286          50     0.07440     1.12491 
    0.91650     0.91930     2.75840     3.67890 0.06       15199          59     0.07480     1.13096 
    0.92650     0.92490     2.77310     3.69870 0.06       15209          70     0.07520     1.13700 
    0.92650     0.92490     2.78770     3.71850 0.06       15223          67     0.07560     1.14305 
    0.93580     0.93450     2.80290     3.73810 0.06       15475          65     0.07600     1.14910 
    0.93580     0.93450     2.81750     3.75790 0.06       15121          50     0.07640     1.15515 
    0.94510     0.94470     2.83210     3.77750 0.06       15308          57     0.07680     1.16119 
    0.94510     0.94470     2.84670     3.79700 0.06       15192          56     0.07720     1.16724 
    0.95690     0.95430     2.86130     3.81680 0.06       15266          64     0.07760     1.17329 
    0.95690     0.95430     2.87660     3.83610 0.06       15368          63     0.07800     1.17934 
    0.96550     0.96420     2.89120     3.85590 0.06       15398          73     0.07840     1.18539 
    0.96550     0.96420     2.90580     3.87580 0.06       15420          64     0.07880     1.19143 
    0.97480     0.97420     2.92040     3.89560 0.06       15336          68     0.07920     1.19748 
    0.97480     0.97420     2.93560     3.91510 0.06       15288          70     0.07960     1.20353 
    0.98480     0.98380     2.95020     3.93490 0.06       15505          58     0.08000     1.20958 
    0.98480     0.98380     2.96480     3.95450 0.06       15450          64     0.08040     1.21563 
    0.99470     0.99370     2.97940     3.97400 0.06       15631          67     0.08080     1.22167 
    0.99470     0.99370     2.99470     3.99390 0.06       15518          79     0.08120     1.22772 
    1.00460     1.00360     3.00930     4.01320 0.06       15479          65     0.08160     1.23377 
    1.00520     1.00360     3.02450     4.03300 0.06       15440          60     0.08200     1.23982 
    1.01450     1.01380     3.03850     4.05250 0.06       15639          68     0.08240     1.24586 
    1.01450     1.01380     3.05370     4.07260 0.06       15542          63     0.08280     1.25191 
    1.02320     1.02280     3.06900     4.09220 0.06       15780          74     0.08320     1.25796 
    1.02320     1.02280     3.08290     4.11170 0.06       15596          73     0.08360     1.26401 
    1.03440     1.03280     3.09750     4.13130 0.06       15592          71     0.08400     1.27006 
    1.03440     1.03280     3.11210     4.15110 0.06       15694          73     0.08440     1.27610 
    1.04370     1.04300     3.12800     4.17090 0.06       15594          74     0.08480     1.28215 
    1.04370     1.04300     3.14200     4.19020 0.06       15665          75     0.08520     1.28820 
    1.05230     1.05290     3.15660     4.21000 0.06       15694          98     0.08560     1.29425 
    1.05230     1.05290     3.17180     4.22960 0.06       15716          84     0.08600     1.30030 
    1.06350     1.06250     3.18640     4.24940 0.06       15637          82     0.08640     1.30634 
    1.06350     1.06250     3.20100     4.26890 0.06       15511          81     0.08680     1.31239 
    1.07340     1.07210     3.21570     4.28850 0.05       15518          86     0.08720     1.31844 
    1.07340     1.07210     3.23030     4.30830 0.05       15520          91     0.08760     1.32449 
    1.08340     1.08240     3.24490     4.32810 0.05       15832          71     0.08800     1.33054 
    1.08400     1.08270     3.26010     4.34790 0.05       15569          81     0.08840     1.33658 
    1.09140     1.09200     3.27470     4.36720 0.05       15642          86     0.08880     1.34263 
    1.09700     1.09200     3.28930     4.38710 0.05       15669          81     0.08920     1.34868 
    1.09760     1.10220     3.30390     4.40660 0.05       15585          81     0.08960     1.35473 
    1.10630     1.10220     3.31920     4.42640 0.05       15674          94     0.09000     1.36077 
    1.11250     1.11150     3.33380     4.44600 0.05       15819          80     0.09040     1.36682 
    1.11250     1.11150     3.34840     4.46550 0.05       15900          88     0.09080     1.37287 
    1.12120     1.12170     3.36300     4.48530 0.05       15938         106     0.09120     1.37892 
    1.12120     1.12170     3.37820     4.50490 0.05       15562          92     0.09160     1.38497 
    1.13110     1.13140     3.39280     4.52500 0.05       15907          93     0.09200     1.39101 
    1.13110     1.13140     3.40740     4.54430 0.05       15914          96     0.09240     1.39706 
    1.14040     1.14130     3.42200     4.56430 0.05       15826          90     0.09280     1.40311 
    1.14600     1.14130     3.43730     4.58390 0.05       16026          97     0.09320     1.40916 
    1.14600     1.15120     3.45190     4.60350 0.05       15917          84     0.09360     1.41521 
    1.15530     1.15120     3.46580     4.62300 0.05       15911         112     0.09400     1.42125 
    1.16150     1.16080     3.48110     4.64260 0.05       15939          89     0.09440     1.42730 
    1.16150     1.16080     3.49500     4.66240 0.05       15783          88     0.09480     1.43335 
    1.17080     1.17070     3.51090     4.68220 0.05       16015         105     0.09520     1.43940 
    1.17080     1.17070     3.52490     4.70200 0.05       15890          99     0.09560     1.44545 
    1.18010     1.18070     3.53950     4.72130 0.05       15720         104     0.09600     1.45149 
    1.18010     1.18070     3.55410     4.74140 0.05       15684         111     0.09640     1.45754 
    1.19060     1.19120     3.56930     4.76090 0.05       15878         107     0.09680     1.46359 
    1.19060     1.19120     3.58400     4.78050 0.05       15935         114     0.09720     1.46964 
    1.19990     1.19990     3.59860     4.80010 0.05       16235         123     0.09760     1.47568 
    1.19990     1.19990     3.61320     4.81960 0.05       16193         105     0.09800     1.48173 
    1.20990     1.21010     3.62840     4.83970 0.05       16079         108     0.09840     1.48778 
    1.21360     1.21010     3.64300     4.85920 0.05       16128          97     0.09880     1.49383 
    1.21790     1.22000     3.65760     4.87880 0.05       16114         123     0.09920     1.49988 
    1.22290     1.22000     3.67220     4.89840 0.05       16024         114     0.09960     1.50592 
    1.22600     1.23000     3.68680     4.91840 0.05       15967         119     0.10000     1.51197 
