'901_2736.nbd' 'Jun 07 2014 21:01' 'I'          5.    1  'TIME'   23  'RAW'
  Filename         Date            Scan       Mon    Prf  Base   #pts  Type    
0.5 mT after 20 mT wafer 901 LHHTML JED191          F1: ON   F2: OFF 
 460    1  500  512 608 512   0   4.7500  0.00000 0.00000   0.00000    1 
 Collimation      Mosaic    Wavelength   T-Start   Incr.   H-field #Det    
  1       0.12294    0.04917    1.20477
  2       0.12294    0.04917    1.20477
  3       0.51657    0.08665    2.42291
  4       0.43315    0.17330    4.24582
  5       0.36881    0.14752    3.61430
  6       0.49174    0.19670    4.81906
 Mot:    Start       Step      End
     A4        A3        A1        A2        A5        A6     MIN      MONITOR      COUNTS   _q    _w  
    0.43300     0.51660     0.12400     0.12430     0.36830     0.49250 0.08        3606           0     0.01000     0.15120 
    0.60630     0.60320     0.17240     0.17300     0.51630     0.68910 0.09        4574           0     0.01400     0.21168 
    0.77950     0.68990     0.22200     0.22160     0.66360     0.88570 0.09        5675           0     0.01800     0.27215 
    0.95280     0.77650     0.27160     0.27090     0.81090     1.08250 0.09        7123           0     0.02200     0.33263 
    1.12600     0.86310     0.32060     0.32060     0.95820     1.27910 0.09        8522           1     0.02600     0.39311 
    1.29930     0.94970     0.37020     0.36890     1.10550     1.47600 0.10       10121           1     0.03000     0.45359 
    1.47250     1.03640     0.42040     0.41820     1.25290     1.67230 0.10       11776           0     0.03400     0.51407 
    1.64580     1.12300     0.46880     0.46750     1.40150     1.86920 0.11       13734           1     0.03800     0.57455 
    1.81920     1.20970     0.51720     0.51650     1.54880     2.06600 0.11       15712           1     0.04200     0.63503 
    1.99240     1.29630     0.56620     0.56520     1.69610     2.26260 0.12       18111           1     0.04600     0.69551 
    2.16580     1.38300     0.61580     0.61450     1.84340     2.45940 0.12       20572           0     0.05000     0.75599 
    2.33920     1.46960     0.66480     0.66410     1.99140     2.65600 0.13       23220           1     0.05400     0.81646 
    2.51230     1.55630     0.71250     0.71310     2.13870     2.85260 0.14       26551           0     0.05800     0.87694 
    2.68550     1.64290     0.76340     0.76240     2.28540     3.04920 0.15       29791           0     0.06200     0.93742 
    2.85900     1.72950     0.81300     0.81170     2.43330     3.24580 0.16       33251           0     0.06600     0.99790 
    3.03230     1.81620     0.86140     0.86100     2.58060     3.44290 0.17       37622           2     0.07000     1.05838 
    3.20550     1.90290     0.91030     0.91030     2.72800     3.63950 0.17       41623           2     0.07400     1.11886 
    3.37890     1.98950     0.96000     0.95900     2.87660     3.83610 0.18       46536           3     0.07800     1.17934 
    3.55230     2.07620     1.00890     1.00830     3.02450     4.03270 0.20       51759           2     0.08200     1.23982 
    3.72550     2.16290     1.05790     1.05760     3.17180     4.22960 0.21       57011           1     0.08600     1.30030 
    3.89890     2.24950     1.10690     1.10690     3.31920     4.42640 0.22       62957           1     0.09000     1.36077 
    4.07230     2.33630     1.15710     1.15620     3.46580     4.62280 0.23       69001           3     0.09400     1.42125 
    4.24580     2.42290     1.20610     1.20510     3.61320     4.81960 0.24       76118           1     0.09800     1.48173 
