'901_2707.nbd' 'Jun 07 2014 00:18' 'I'         15.    1  'TIME'   51  'RAW'
  Filename         Date            Scan       Mon    Prf  Base   #pts  Type    
0.5 mT virgin wafer 901 LHHTML JED191               F1: ON   F2: OFF 
 460    1  500  512 608 512   0   4.7500  0.00000 0.00000   0.00000    1 
 Collimation      Mosaic    Wavelength   T-Start   Incr.   H-field #Det    
  1       1.22935    0.02459    2.45871
  2       1.22935    0.02459    2.45871
  3       2.16626    0.04339    4.33562
  4       4.33251    0.08677    8.67123
  5       3.68806    0.07376    7.37612
  6       4.91741    0.09835    9.83482
 Mot:    Start       Step      End
     A4        A3        A1        A2        A5        A6     MIN      MONITOR      COUNTS   _q    _w  
    4.33230     2.16630     1.22780     1.23000     3.68680     4.91820 0.25       78507          62     0.10000     1.51197 
    4.41900     2.20960     1.25200     1.25440     3.76110     5.01650 0.26       82030          48     0.10200     1.54221 
    4.50580     2.25300     1.27680     1.27890     3.83480     5.11500 0.26       86191          27     0.10400     1.57245 
    4.59240     2.29630     1.30160     1.30310     3.90840     5.21310 0.27       89452          31     0.10600     1.60269 
    4.67920     2.33970     1.32580     1.32790     3.98210     5.31140 0.28       94193          25     0.10800     1.63293 
    4.76580     2.38300     1.35060     1.35240     4.05580     5.40990 0.29       97889          23     0.11000     1.66317 
    4.85250     2.42640     1.37600     1.37690     4.13000     5.50800 0.29      102233          11     0.11200     1.69341 
    4.93930     2.46970     1.40020     1.40170     4.20430     5.60630 0.30      105765          14     0.11400     1.72365 
    5.02590     2.51310     1.42500     1.42650     4.27800     5.70480 0.31      111469           4     0.11600     1.75389 
    5.11270     2.55640     1.44980     1.45100     4.35170     5.80310 0.32      115603          10     0.11800     1.78413 
    5.19940     2.59980     1.47400     1.47550     4.42530     5.90170 0.32      120194           4     0.12000     1.81437 
    5.28610     2.64320     1.49880     1.50000     4.49900     6.00000 0.33      125227           8     0.12200     1.84461 
    5.37280     2.68650     1.52240     1.52450     4.57260     6.09830 0.34      130238           2     0.12400     1.87485 
    5.45950     2.72990     1.54660     1.54900     4.64690     6.19650 0.35      134828           9     0.12600     1.90508 
    5.54630     2.77330     1.57140     1.57380     4.72060     6.29480 0.36      140858           7     0.12800     1.93532 
    5.63300     2.81660     1.59620     1.59860     4.79360     6.39310 0.36      146068           7     0.13000     1.96556 
    5.71980     2.86000     1.62040     1.62310     4.86730     6.49170 0.37      150725          14     0.13200     1.99580 
    5.80650     2.90340     1.64460     1.64820     4.94090     6.59020 0.38      157641          14     0.13400     2.02604 
    5.89330     2.94680     1.67000     1.67210     5.01460     6.68830 0.39      163412          10     0.13600     2.05628 
    5.98000     2.99010     1.69350     1.69660     5.08830     6.78680 0.40      169851          12     0.13800     2.08652 
    6.06680     3.03350     1.71840     1.72110     5.16260     6.88490 0.41      175092          15     0.14000     2.11676 
    6.15370     3.07690     1.74380     1.74530     5.23620     6.98340 0.42      182572          16     0.14200     2.14700 
    6.24030     3.12020     1.76920     1.77010     5.31050     7.08150 0.43      188402          20     0.14400     2.17724 
    6.32700     3.16360     1.79400     1.79460     5.38420     7.18000 0.44      195262          27     0.14600     2.20748 
    6.41380     3.20700     1.81820     1.81970     5.45780     7.27830 0.45      201738          24     0.14800     2.23772 
    6.50050     3.25040     1.84240     1.84450     5.53150     7.37690 0.46      209890          22     0.15000     2.26796 
    6.58730     3.29370     1.86720     1.86870     5.60580     7.47520 0.47      217439          19     0.15200     2.29820 
    6.67400     3.33720     1.89070     1.89350     5.67950     7.57370 0.48      224095          25     0.15400     2.32844 
    6.76090     3.38050     1.91490     1.91770     5.75310     7.67180 0.49      231377          30     0.15600     2.35868 
    6.84780     3.42390     1.94040     1.94250     5.82680     7.77010 0.50      239062          28     0.15800     2.38892 
    6.93440     3.46730     1.96450     1.96730     5.90040     7.86840 0.51      247625          25     0.16000     2.41916 
    7.02120     3.51070     1.99000     1.99180     5.97410     7.96690 0.52      255401          30     0.16200     2.44939 
    7.10800     3.55410     2.01420     2.01660     6.04840     8.06520 0.53      263396          30     0.16400     2.47963 
    7.19480     3.59750     2.03830     2.04110     6.12140     8.16350 0.54      273054          34     0.16600     2.50987 
    7.28170     3.64090     2.06380     2.06560     6.19510     8.26180 0.55      280977          41     0.16800     2.54011 
    7.36840     3.68430     2.08790     2.08970     6.26870     8.36010 0.56      289058          44     0.17000     2.57035 
    7.45530     3.72770     2.11270     2.11420     6.34240     8.45840 0.58      300003          37     0.17200     2.60059 
    7.54200     3.77110     2.13760     2.13900     6.41610     8.55700 0.59      308977          30     0.17400     2.63083 
    7.62890     3.81450     2.16300     2.16380     6.49030     8.65530 0.60      316485          39     0.17600     2.66107 
    7.71570     3.85790     2.18650     2.18830     6.56400     8.75360 0.61      327294          29     0.17800     2.69131 
    7.80250     3.90140     2.20950     2.21280     6.63830     8.85190 0.62      336922          34     0.18000     2.72155 
    7.88940     3.94480     2.23430     2.23760     6.71200     8.95070 0.64      345984          26     0.18200     2.75179 
    7.97620     3.98820     2.25850     2.26240     6.78630     9.04870 0.65      356802          30     0.18400     2.78203 
    8.06300     4.03160     2.28390     2.28660     6.85990     9.14700 0.66      366817          29     0.18600     2.81227 
    8.15000     4.07500     2.30810     2.31170     6.93290     9.24510 0.67      378319          25     0.18800     2.84251 
    8.23680     4.11850     2.33230     2.33590     7.00720     9.34340 0.69      389099          24     0.19000     2.87275 
    8.32350     4.16190     2.35710     2.36070     7.08090     9.44190 0.70      400189          21     0.19200     2.90299 
    8.41040     4.20530     2.38130     2.38550     7.15460     9.54050 0.71      410470          15     0.19400     2.93323 
    8.49730     4.24880     2.40610     2.41030     7.22820     9.63880 0.72      423201          10     0.19600     2.96347 
    8.58420     4.29220     2.43150     2.43450     7.30120     9.73730 0.74      435472          17     0.19800     2.99370 
    8.67100     4.33560     2.45510     2.45870     7.37490     9.83540 0.75      444865          14     0.20000     3.02394 
