'916_2758.ndd' 'Jun 08 2014 06:32' 'I'          5.    1  'TIME'  226  'RAW'
  Filename         Date            Scan       Mon    Prf  Base   #pts  Type    
2 mT wafer 916 LHHTML JED191                        F1: ON   F2: ON  
 460    1  500  512 608 512   0   4.7500  0.00000 0.00000   0.00000    1 
 Collimation      Mosaic    Wavelength   T-Start   Incr.   H-field #Det    
  1       0.12294    0.00492    1.22935
  2       0.12294    0.00492    1.22935
  3       0.21657    0.00867    2.16626
  4       0.43315    0.01733    4.33251
  5       0.36881    0.01475    3.68806
  6       0.49174    0.01967    4.91741
 Mot:    Start       Step      End
     A4        A3        A1        A2        A5        A6     MIN      MONITOR      COUNTS   _q    _w  
    0.43300     0.21660     0.12090     0.12430     0.36830     0.49250 0.08        3434         787     0.01000     0.15120 
    0.45030     0.22530     0.12530     0.12430     0.38360     0.51200 0.09        3644         872     0.01040     0.15725 
    0.46780     0.23390     0.13020     0.13330     0.39820     0.53160 0.09        3647         969     0.01080     0.16329 
    0.48490     0.24260     0.13520     0.13330     0.41280     0.55110 0.09        3708        1081     0.01120     0.16934 
    0.50230     0.25130     0.14080     0.14350     0.42740     0.57100 0.09        3787        1264     0.01160     0.17539 
    0.51970     0.25990     0.14450     0.14350     0.44200     0.59050 0.09        3862        1361     0.01200     0.18144 
    0.53700     0.26860     0.14950     0.15280     0.45720     0.61010 0.09        3999        1472     0.01240     0.18748 
    0.55430     0.27720     0.15570     0.15280     0.47180     0.62990 0.09        4180        1516     0.01280     0.19353 
    0.57150     0.28590     0.15880     0.16300     0.48710     0.64940 0.09        4182        1844     0.01320     0.19958 
    0.58890     0.29460     0.16430     0.16300     0.50100     0.66950 0.09        4250        1946     0.01360     0.20563 
    0.60630     0.30320     0.16930     0.17300     0.51630     0.68880 0.09        4505        2031     0.01400     0.21168 
    0.62350     0.31190     0.17430     0.17270     0.53090     0.70840 0.09        4462        2198     0.01440     0.21772 
    0.64090     0.32060     0.17980     0.18260     0.54550     0.72840 0.09        4691        2421     0.01480     0.22377 
    0.65830     0.32920     0.18420     0.18260     0.56070     0.74800 0.09        4576        2528     0.01520     0.22982 
    0.67550     0.33790     0.18910     0.19250     0.57530     0.76780 0.09        4879        2823     0.01560     0.23587 
    0.69290     0.34660     0.19470     0.19250     0.58990     0.78710 0.09        5023        2788     0.01600     0.24192 
    0.71020     0.35520     0.19910     0.20240     0.60450     0.80690 0.09        5149        3160     0.01640     0.24796 
    0.72750     0.36380     0.20400     0.20240     0.61910     0.82650 0.09        5249        3282     0.01680     0.25401 
    0.74480     0.37250     0.20770     0.21230     0.63370     0.84650 0.09        5344        3540     0.01720     0.26006 
    0.76230     0.38120     0.21330     0.21230     0.64900     0.86590 0.09        5523        3571     0.01760     0.26611 
    0.77950     0.38980     0.21950     0.22160     0.66360     0.88540 0.09        5613        2689     0.01800     0.27215 
    0.79680     0.39850     0.22390     0.22160     0.67820     0.90550 0.09        5821        1930     0.01840     0.27820 
    0.81420     0.40720     0.22820     0.23190     0.69280     0.92500 0.09        5705        1205     0.01880     0.28425 
    0.83150     0.41580     0.23260     0.23190     0.70800     0.94480 0.09        6068        1150     0.01920     0.29030 
    0.84880     0.42450     0.23750     0.24180     0.72260     0.96410 0.09        6175         579     0.01960     0.29635 
    0.86620     0.43320     0.24430     0.24180     0.73720     0.98400 0.09        6290         673     0.02000     0.30239 
    0.88340     0.44180     0.24810     0.25200     0.75190     1.00380 0.09        6377         741     0.02040     0.30844 
    0.90080     0.45050     0.25300     0.25200     0.76710     1.02330 0.09        6433         413     0.02080     0.31449 
    0.91810     0.45920     0.25740     0.26070     0.78170     1.04290 0.09        6498         241     0.02120     0.32054 
    0.93540     0.46780     0.26230     0.26070     0.79630     1.06270 0.09        6820         426     0.02160     0.32659 
    0.95280     0.47650     0.26850     0.27090     0.81090     1.08250 0.09        6896         621     0.02200     0.33263 
    0.97000     0.48520     0.27290     0.27090     0.82550     1.10210 0.09        6830         384     0.02240     0.33868 
    0.98740     0.49380     0.27720     0.28120     0.84080     1.12190 0.09        7050         185     0.02280     0.34473 
    1.00480     0.50250     0.28280     0.28120     0.85540     1.14140 0.09        7345         341     0.02320     0.35078 
    1.02200     0.51120     0.28710     0.29080     0.87000     1.16130 0.09        7545         653     0.02360     0.35683 
    1.03940     0.51980     0.29330     0.29080     0.88460     1.18080 0.09        7459         541     0.02400     0.36287 
    1.05670     0.52850     0.29700     0.30070     0.89980     1.20040 0.09        7716         254     0.02440     0.36892 
    1.07400     0.53710     0.30200     0.30070     0.91440     1.22020 0.09        7766         207     0.02480     0.37497 
    1.09140     0.54580     0.30760     0.31030     0.92900     1.23950 0.09        8026         409     0.02520     0.38102 
    1.10870     0.55450     0.31190     0.31030     0.94360     1.25950 0.09        7940         539     0.02560     0.38706 
    1.12600     0.56310     0.31750     0.32060     0.95820     1.27910 0.09        8363         417     0.02600     0.39311 
    1.14350     0.57180     0.32190     0.32060     0.97350     1.29890 0.09        8439         188     0.02640     0.39916 
    1.16070     0.58040     0.32680     0.32990     0.98740     1.31850 0.10        8662         135     0.02680     0.40521 
    1.17800     0.58910     0.33240     0.32990     1.00200     1.33830 0.10        8705         235     0.02720     0.41126 
    1.19530     0.59780     0.33670     0.34010     1.01660     1.35780 0.10        8865         273     0.02760     0.41730 
    1.21260     0.60640     0.34230     0.34010     1.03190     1.37740 0.10        9017         197     0.02800     0.42335 
    1.23000     0.61510     0.34730     0.34940     1.04650     1.39700 0.10        9359         119     0.02840     0.42940 
    1.24730     0.62380     0.35100     0.34940     1.06110     1.41650 0.10        9312          83     0.02880     0.43545 
    1.26470     0.63240     0.35600     0.35960     1.07570     1.43660 0.10        9676         102     0.02920     0.44150 
    1.28190     0.64110     0.36090     0.35960     1.09090     1.45610 0.10        9564          94     0.02960     0.44754 
    1.29930     0.64970     0.36590     0.36890     1.10550     1.47600 0.10        9644          83     0.03000     0.45359 
    1.31670     0.65840     0.37210     0.36890     1.12010     1.49530 0.10       10160         114     0.03040     0.45964 
    1.33400     0.66710     0.37640     0.37920     1.13480     1.51510 0.10       10117         165     0.03080     0.46569 
    1.35130     0.67570     0.38140     0.37920     1.15000     1.53490 0.10       10536         217     0.03120     0.47174 
    1.36870     0.68440     0.38510     0.38880     1.16460     1.55440 0.10       10567         179     0.03160     0.47778 
    1.38590     0.69310     0.39070     0.38880     1.17920     1.57400 0.10       10622         107     0.03200     0.48383 
    1.40330     0.70170     0.39690     0.39840     1.19380     1.59360 0.10       11005         124     0.03240     0.48988 
    1.42050     0.71040     0.40120     0.39840     1.20840     1.61340 0.10       10921         237     0.03280     0.49593 
    1.43800     0.71910     0.40560     0.40830     1.22370     1.63290 0.10       11404         393     0.03320     0.50197 
    1.45530     0.72770     0.40990     0.40830     1.23830     1.65300 0.10       11398         427     0.03360     0.50802 
    1.47250     0.73640     0.41550     0.41820     1.25290     1.67230 0.10       11309         322     0.03400     0.51407 
    1.48990     0.74500     0.42040     0.41820     1.26750     1.69190 0.10       11774         226     0.03440     0.52012 
    1.50720     0.75370     0.42540     0.42810     1.28270     1.71190 0.10       11954         270     0.03480     0.52617 
    1.52450     0.76240     0.42980     0.42810     1.29730     1.73150 0.10       12156         423     0.03520     0.53221 
    1.54200     0.77100     0.43530     0.43740     1.31190     1.75100 0.10       12222         468     0.03560     0.53826 
    1.55930     0.77970     0.43970     0.44270     1.32650     1.77090 0.10       12550         480     0.03600     0.54431 
    1.57650     0.78840     0.44530     0.44270     1.34180     1.79040 0.11       12752         338     0.03640     0.55036 
    1.59390     0.79700     0.44960     0.45260     1.35640     1.81000 0.11       13044         190     0.03680     0.55641 
    1.61120     0.80570     0.45460     0.45260     1.37100     1.82980 0.11       13051         208     0.03720     0.56245 
    1.62850     0.81440     0.46010     0.46220     1.38560     1.84930 0.11       13543         289     0.03760     0.56850 
    1.64580     0.82300     0.46450     0.46220     1.40150     1.86890 0.11       13552         332     0.03800     0.57455 
    1.66320     0.83170     0.47010     0.47220     1.41540     1.88900 0.11       13669         303     0.03840     0.58060 
    1.68050     0.84040     0.47440     0.47220     1.43070     1.90830 0.11       13732         189     0.03880     0.58665 
    1.69780     0.84900     0.47940     0.48210     1.44530     1.92810 0.11       14208          92     0.03920     0.59269 
    1.71520     0.85770     0.48560     0.48210     1.45920     1.94760 0.11       14513          76     0.03960     0.59874 
    1.73250     0.86630     0.48870     0.49230     1.47510     1.96770 0.11       14363          79     0.04000     0.60479 
    1.74980     0.87500     0.49420     0.49230     1.48970     1.98700 0.11       14883          97     0.04040     0.61084 
    1.76720     0.88370     0.49920     0.50100     1.50430     2.00660 0.11       15040          88     0.04080     0.61688 
    1.78440     0.89230     0.50350     0.50690     1.51890     2.02640 0.11       15100          77     0.04120     0.62293 
    1.80180     0.90100     0.50910     0.50690     1.53420     2.04620 0.11       15384          44     0.04160     0.62898 
    1.81920     0.90970     0.51350     0.51650     1.54880     2.06600 0.11       15584          42     0.04200     0.63503 
    1.83640     0.91830     0.51840     0.51650     1.56340     2.08560 0.11       15713          37     0.04240     0.64108 
    1.85380     0.92700     0.52460     0.52610     1.57800     2.10510 0.11       16206          26     0.04280     0.64712 
    1.87120     0.93570     0.52900     0.52610     1.59320     2.12490 0.11       16291          53     0.04320     0.65317 
    1.88840     0.94430     0.53390     0.53600     1.60780     2.14470 0.12       16371         112     0.04360     0.65922 
    1.90580     0.95300     0.53770     0.53600     1.62240     2.16430 0.12       16702         153     0.04400     0.66527 
    1.92300     0.96160     0.54320     0.54570     1.63700     2.18390 0.12       17182         163     0.04440     0.67132 
    1.94040     0.97030     0.55010     0.55060     1.65160     2.20340 0.12       17174         162     0.04480     0.67736 
    1.95780     0.97900     0.55380     0.55620     1.66690     2.22320 0.12       17523         112     0.04520     0.68341 
    1.97500     0.98760     0.55750     0.55620     1.68150     2.24300 0.12       17546         141     0.04560     0.68946 
    1.99240     0.99630     0.56250     0.56520     1.69610     2.26260 0.12       17700         183     0.04600     0.69551 
    2.00980     1.00500     0.56740     0.57050     1.71070     2.28240 0.12       18045         224     0.04640     0.70155 
    2.02700     1.01360     0.57300     0.57050     1.72590     2.30200 0.12       18309         266     0.04680     0.70760 
    2.04440     1.02230     0.57800     0.58070     1.74050     2.32180 0.12       18679         293     0.04720     0.71365 
    2.06160     1.03100     0.58290     0.58070     1.75580     2.34130 0.12       18888         199     0.04760     0.71970 
    2.07900     1.03960     0.58790     0.59000     1.76980     2.36090 0.12       19034         166     0.04800     0.72575 
    2.09640     1.04830     0.59220     0.59560     1.78500     2.38050 0.12       19288         149     0.04840     0.73179 
    2.11370     1.05700     0.59840     0.59560     1.80020     2.40030 0.12       19700         184     0.04880     0.73784 
    2.13100     1.06560     0.60280     0.60490     1.81420     2.42010 0.12       19828         240     0.04920     0.74389 
    2.14840     1.07430     0.60770     0.60490     1.82880     2.43940 0.12       20434         207     0.04960     0.74994 
    2.16570     1.08290     0.61270     0.61450     1.84340     2.45920 0.12       20633         162     0.05000     0.75599 
    2.18300     1.09160     0.61700     0.62010     1.85870     2.47900 0.13       20629         112     0.05040     0.76203 
    2.20040     1.10030     0.62260     0.62010     1.87330     2.49860 0.13       21073          62     0.05080     0.76808 
    2.21770     1.10890     0.62690     0.62940     1.88790     2.51840 0.13       21479          64     0.05120     0.77413 
    2.23500     1.11760     0.63130     0.62940     1.90250     2.53790 0.13       21548          73     0.05160     0.78018 
    2.25230     1.12630     0.63690     0.63900     1.91770     2.55770 0.13       22068          94     0.05200     0.78623 
    2.26970     1.13500     0.64180     0.64490     1.93230     2.57730 0.13       21880          94     0.05240     0.79227 
    2.28700     1.14360     0.64680     0.64490     1.94690     2.59710 0.13       22351          82     0.05280     0.79832 
    2.30430     1.15230     0.65180     0.65360     1.96150     2.61640 0.13       22696          75     0.05320     0.80437 
    2.32170     1.16090     0.65670     0.65910     1.97680     2.63620 0.13       22727          59     0.05360     0.81042 
    2.33900     1.16960     0.66170     0.65910     1.99140     2.65600 0.13       23288          60     0.05400     0.81646 
    2.35630     1.17830     0.66600     0.66940     2.00600     2.67560 0.13       23647          87     0.05440     0.82251 
    2.37370     1.18690     0.67160     0.66940     2.02060     2.69540 0.13       23881         119     0.05480     0.82856 
    2.39100     1.19560     0.67720     0.67840     2.03520     2.71500 0.13       24165         152     0.05520     0.83461 
    2.40830     1.20430     0.68150     0.68360     2.05040     2.73480 0.13       24497         189     0.05560     0.84066 
    2.42570     1.21290     0.68650     0.68360     2.06500     2.75430 0.14       24958         196     0.05600     0.84670 
    2.44300     1.22160     0.69080     0.69360     2.07960     2.77420 0.14       24784         167     0.05640     0.85275 
    2.46030     1.23030     0.69580     0.69360     2.09420     2.79350 0.14       25559         185     0.05680     0.85880 
    2.47770     1.23890     0.70010     0.70320     2.10950     2.81300 0.14       25415         195     0.05720     0.86485 
    2.49490     1.24760     0.70450     0.70320     2.12410     2.83280 0.14       26071         219     0.05760     0.87090 
    2.51230     1.25630     0.71000     0.71310     2.13870     2.85260 0.14       26520         247     0.05800     0.87694 
    2.52960     1.26490     0.71440     0.71310     2.15330     2.87240 0.14       26806         280     0.05840     0.88299 
    2.54700     1.27360     0.71930     0.72300     2.16850     2.89180 0.14       27285         269     0.05880     0.88904 
    2.56430     1.28230     0.72550     0.72300     2.18310     2.91180 0.14       27206         203     0.05920     0.89509 
    2.58160     1.29090     0.72990     0.73320     2.19710     2.93140 0.14       27658         213     0.05960     0.90114 
    2.59890     1.29960     0.73480     0.73320     2.21230     2.95120 0.14       28281         183     0.06000     0.90718 
    2.61630     1.30830     0.73980     0.74220     2.22630     2.97050 0.14       28310         215     0.06040     0.91323 
    2.63350     1.31690     0.74480     0.74750     2.24160     2.99010 0.14       28844         233     0.06080     0.91928 
    2.65090     1.32560     0.75100     0.74750     2.25620     3.01010 0.15       28933         210     0.06120     0.92533 
    2.66830     1.33420     0.75470     0.75740     2.27080     3.02970 0.15       29568         179     0.06160     0.93137 
    2.68550     1.34290     0.75970     0.75740     2.28540     3.04920 0.15       29801         117     0.06200     0.93742 
    2.70290     1.35160     0.76400     0.76700     2.30060     3.06880 0.15       30101         116     0.06240     0.94347 
    2.72030     1.36020     0.76900     0.77230     2.31520     3.08860 0.15       30382         100     0.06280     0.94952 
    2.73750     1.36890     0.77390     0.77230     2.32980     3.10840 0.15       30540          86     0.06320     0.95557 
    2.75490     1.37760     0.77830     0.78160     2.34440     3.12820 0.15       31216          97     0.06360     0.96161 
    2.77230     1.38620     0.78320     0.78690     2.35970     3.14750 0.15       31759          80     0.06400     0.96766 
    2.78950     1.39490     0.78820     0.78690     2.37430     3.16730 0.15       31794          66     0.06440     0.97371 
    2.80690     1.40360     0.79310     0.79710     2.38890     3.18720 0.15       32523          47     0.06480     0.97976 
    2.82430     1.41220     0.79930     0.79710     2.40350     3.20650 0.15       32874          43     0.06520     0.98581 
    2.84150     1.42090     0.80370     0.80640     2.41870     3.22630 0.16       33259          35     0.06560     0.99185 
    2.85890     1.42960     0.80860     0.80640     2.43330     3.24580 0.16       33687          61     0.06600     0.99790 
    2.87630     1.43820     0.81360     0.81630     2.44790     3.26590 0.16       33720          54     0.06640     1.00395 
    2.89350     1.44690     0.81860     0.81630     2.46250     3.28550 0.16       34425          81     0.06680     1.01000 
    2.91090     1.45550     0.82480     0.82630     2.47710     3.30500 0.16       34795         104     0.06720     1.01605 
    2.92820     1.46420     0.82910     0.82630     2.49240     3.32480 0.16       34651         108     0.06760     1.02209 
    2.94550     1.47290     0.83410     0.83620     2.50700     3.34440 0.16       35696         106     0.06800     1.02814 
    2.96290     1.48150     0.83720     0.83620     2.52160     3.36420 0.16       35860         109     0.06840     1.03419 
    2.98020     1.49020     0.84270     0.84610     2.53620     3.38380 0.16       36136         125     0.06880     1.04024 
    2.99750     1.49890     0.84830     0.84610     2.55140     3.40330 0.16       36513         133     0.06920     1.04628 
    3.01490     1.50750     0.85270     0.85570     2.56600     3.42290 0.16       36944         182     0.06960     1.05233 
    3.03220     1.51620     0.85760     0.85570     2.58060     3.44290 0.17       37462         197     0.07000     1.05838 
    3.04950     1.52490     0.86200     0.86560     2.59530     3.46250 0.17       37804         198     0.07040     1.06443 
    3.06690     1.53350     0.86690     0.86560     2.61050     3.48200 0.17       38242         196     0.07080     1.07048 
    3.08420     1.54220     0.87310     0.87560     2.62510     3.50160 0.17       38402         188     0.07120     1.07652 
    3.10150     1.55090     0.87810     0.87560     2.63970     3.52140 0.17       39185         166     0.07160     1.08257 
    3.11890     1.55950     0.88240     0.88580     2.65430     3.54120 0.17       39668         206     0.07200     1.08862 
    3.13630     1.56820     0.88740     0.88580     2.66960     3.56080 0.17       40009         193     0.07240     1.09467 
    3.15350     1.57680     0.89240     0.89480     2.68420     3.58060 0.17       40247         194     0.07280     1.10072 
    3.17090     1.58550     0.89860     0.90040     2.69880     3.59990 0.17       40802         175     0.07320     1.10676 
    3.18820     1.59420     0.90290     0.90040     2.71400     3.62000 0.17       41378         168     0.07360     1.11281 
    3.20550     1.60290     0.90660     0.91030     2.72800     3.63950 0.17       41762         150     0.07400     1.11886 
    3.22290     1.61150     0.91220     0.91030     2.74380     3.65880 0.18       42307         134     0.07440     1.12491 
    3.24030     1.62020     0.91650     0.91930     2.75840     3.67890 0.18       42860         126     0.07480     1.13096 
    3.25750     1.62890     0.92210     0.92490     2.77310     3.69850 0.18       42989         120     0.07520     1.13700 
    3.27490     1.63750     0.92650     0.92490     2.78770     3.71830 0.18       43675         115     0.07560     1.14305 
    3.29220     1.64620     0.93140     0.93450     2.80290     3.73780 0.18       44172          95     0.07600     1.14910 
    3.30950     1.65490     0.93700     0.93450     2.81750     3.75760 0.18       44430         104     0.07640     1.15515 
    3.32690     1.66350     0.94130     0.94470     2.83210     3.77720 0.18       45004          71     0.07680     1.16119 
    3.34430     1.67220     0.94690     0.94470     2.84670     3.79680 0.18       45287          82     0.07720     1.16724 
    3.36150     1.68090     0.95190     0.95430     2.86130     3.81660 0.18       45722          69     0.07760     1.17329 
    3.37890     1.68950     0.95620     0.95430     2.87660     3.83590 0.18       46460          65     0.07800     1.17934 
    3.39620     1.69820     0.96120     0.96420     2.89120     3.85570 0.19       47192          71     0.07840     1.18539 
    3.41350     1.70690     0.96620     0.96420     2.90580     3.87550 0.19       47327          87     0.07880     1.19143 
    3.43090     1.71550     0.97110     0.97420     2.92040     3.89530 0.19       47684          95     0.07920     1.19748 
    3.44830     1.72420     0.97670     0.97420     2.93560     3.91490 0.19       48173         102     0.07960     1.20353 
    3.46550     1.73290     0.98100     0.98380     2.95020     3.93470 0.19       48908          93     0.08000     1.20958 
    3.48290     1.74150     0.98600     0.98380     2.96480     3.95420 0.19       49556         102     0.08040     1.21563 
    3.50020     1.75020     0.98970     0.99340     2.97940     3.97380 0.19       49955          99     0.08080     1.22167 
    3.51750     1.75880     0.99530     0.99340     2.99470     3.99360 0.19       50607         126     0.08120     1.22772 
    3.53490     1.76750     1.00150     1.00360     3.00930     4.01290 0.19       51230         136     0.08160     1.23377 
    3.55230     1.77620     1.00520     1.00360     3.02450     4.03270 0.20       51514         148     0.08200     1.23982 
    3.56950     1.78490     1.01080     1.01380     3.03850     4.05230 0.20       51990         165     0.08240     1.24586 
    3.58690     1.79350     1.01450     1.01380     3.05370     4.07230 0.20       52611         172     0.08280     1.25191 
    3.60420     1.80220     1.01950     1.02280     3.06900     4.09190 0.20       53068         179     0.08320     1.25796 
    3.62150     1.81090     1.02570     1.02280     3.08290     4.11150 0.20       53512         170     0.08360     1.26401 
    3.63890     1.81950     1.03060     1.03280     3.09750     4.13100 0.20       53956         191     0.08400     1.27006 
    3.65610     1.82820     1.03560     1.03280     3.11210     4.15080 0.20       55006         162     0.08440     1.27610 
    3.67350     1.83690     1.03990     1.04270     3.12800     4.17060 0.20       55111         171     0.08480     1.28215 
    3.69090     1.84550     1.04490     1.04300     3.14200     4.18990 0.20       56345         147     0.08520     1.28820 
    3.70820     1.85420     1.05050     1.05290     3.15660     4.20980 0.21       56730         166     0.08560     1.29425 
    3.72550     1.86290     1.05360     1.05290     3.17180     4.22930 0.21       56592         151     0.08600     1.30030 
    3.74290     1.87150     1.05920     1.06250     3.18640     4.24940 0.21       57613         119     0.08640     1.30634 
    3.76030     1.88020     1.06480     1.06250     3.20100     4.26870 0.21       57870         117     0.08680     1.31239 
    3.77750     1.88890     1.06850     1.07210     3.21570     4.28820 0.21       58551         107     0.08720     1.31844 
    3.79490     1.89750     1.07470     1.07210     3.23030     4.30830 0.21       59398          90     0.08760     1.32449 
    3.81230     1.90620     1.07900     1.08240     3.24490     4.32790 0.21       60021          83     0.08800     1.33054 
    3.82950     1.91490     1.08400     1.08240     3.26010     4.34770 0.21       60272          93     0.08840     1.33658 
    3.84690     1.92350     1.08960     1.09200     3.27470     4.36700 0.21       61033          51     0.08880     1.34263 
    3.86430     1.93220     1.09390     1.09200     3.28930     4.38710 0.22       61560          55     0.08920     1.34868 
    3.88150     1.94090     1.10010     1.10220     3.30390     4.40640 0.22       62395          36     0.08960     1.35473 
    3.89890     1.94960     1.10380     1.10220     3.31920     4.42620 0.22       62602          34     0.09000     1.36077 
    3.91630     1.95820     1.10880     1.11150     3.33380     4.44570 0.22       63502          35     0.09040     1.36682 
    3.93350     1.96690     1.11370     1.11150     3.34840     4.46530 0.22       64495          37     0.09080     1.37287 
    3.95090     1.97560     1.11750     1.12170     3.36300     4.48530 0.22       64761          30     0.09120     1.37892 
    3.96830     1.98420     1.12300     1.12170     3.37820     4.50490 0.22       64841          27     0.09160     1.38497 
    3.98550     1.99290     1.12920     1.13140     3.39280     4.52470 0.22       65918          34     0.09200     1.39101 
    4.00290     2.00160     1.13360     1.13140     3.40740     4.54400 0.23       66604          24     0.09240     1.39706 
    4.02030     2.01020     1.13850     1.14130     3.42200     4.56410 0.23       66963          25     0.09280     1.40311 
    4.03760     2.01890     1.14290     1.14130     3.43730     4.58360 0.23       68068          38     0.09320     1.40916 
    4.05490     2.02760     1.14850     1.15120     3.45190     4.60320 0.23       68751          32     0.09360     1.41521 
    4.07230     2.03630     1.15470     1.15120     3.46580     4.62280 0.23       69509          65     0.09400     1.42125 
    4.08970     2.04490     1.15840     1.16050     3.48110     4.64230 0.23       69558          59     0.09440     1.42730 
    4.10690     2.05360     1.16400     1.16050     3.49570     4.66240 0.23       70026          63     0.09480     1.43335 
    4.12430     2.06230     1.16710     1.17070     3.51090     4.68190 0.23       70911          62     0.09520     1.43940 
    4.14170     2.07090     1.17270     1.17070     3.52490     4.70180 0.24       72342          58     0.09560     1.44545 
    4.15890     2.07960     1.17890     1.18030     3.53950     4.72130 0.24       72660          70     0.09600     1.45149 
    4.17630     2.08830     1.18320     1.18030     3.55410     4.74110 0.24       72760          67     0.09640     1.45754 
    4.19370     2.09690     1.18820     1.19120     3.56930     4.76070 0.24       73434          63     0.09680     1.46359 
    4.21090     2.10560     1.19250     1.19120     3.58400     4.78020 0.24       74379          74     0.09720     1.46964 
    4.22830     2.11430     1.19750     1.19990     3.59860     4.80010 0.24       74972          83     0.09760     1.47568 
    4.24580     2.12290     1.20300     1.19990     3.61320     4.81940 0.24       75652          56     0.09800     1.48173 
    4.26300     2.13160     1.20740     1.21010     3.62840     4.83940 0.24       75736          52     0.09840     1.48778 
    4.28030     2.14030     1.21170     1.21010     3.64300     4.85900 0.25       77020          69     0.09880     1.49383 
    4.29770     2.14890     1.21610     1.21970     3.65760     4.87880 0.25       77695          73     0.09920     1.49988 
    4.31500     2.15760     1.22230     1.21970     3.67220     4.89810 0.25       78796          75     0.09960     1.50592 
    4.33230     2.16630     1.22850     1.23000     3.68680     4.91820 0.25       79069          71     0.10000     1.51197 
