'916_2759.nad' 'Jun 08 2014 08:16' 'I'         15.    1  'TIME'   51  'RAW'
  Filename         Date            Scan       Mon    Prf  Base   #pts  Type    
2 mT wafer 916 LHHTML JED191                        F1: OFF  F2: OFF 
 460    1  500  512 608 512   0   4.7500  0.00000 0.00000   0.00000    1 
 Collimation      Mosaic    Wavelength   T-Start   Incr.   H-field #Det    
  1       1.22935    0.02459    2.45871
  2       1.22935    0.02459    2.45871
  3       2.16626    0.04339    4.33562
  4       4.33251    0.08677    8.67123
  5       3.68806    0.07376    7.37612
  6       4.91741    0.09835    9.83482
 Mot:    Start       Step      End
     A4        A3        A1        A2        A5        A6     MIN      MONITOR      COUNTS   _q    _w  
    4.33230     2.16630     1.22850     1.23000     3.68680     4.91820 0.25       79481         179     0.10000     1.51197 
    4.41900     2.20960     1.25330     1.25480     3.76110     5.01650 0.26       82923         147     0.10200     1.54221 
    4.50580     2.25300     1.27680     1.27890     3.83480     5.11480 0.26       86580         195     0.10400     1.57245 
    4.59240     2.29630     1.30230     1.30310     3.90840     5.21310 0.27       90749         159     0.10600     1.60269 
    4.67920     2.33970     1.32640     1.32790     3.98270     5.31140 0.28       94377         140     0.10800     1.63293 
    4.76580     2.38300     1.35060     1.35240     4.05640     5.40970 0.29       98886          85     0.11000     1.66317 
    4.85250     2.42640     1.37480     1.37690     4.13000     5.50800 0.29      103262          48     0.11200     1.69341 
    4.93930     2.46970     1.39900     1.40200     4.20430     5.60630 0.30      106514          28     0.11400     1.72365 
    5.02590     2.51310     1.42320     1.42650     4.27800     5.70480 0.31      111447          17     0.11600     1.75389 
    5.11270     2.55640     1.44860     1.45070     4.35170     5.80310 0.32      116614          16     0.11800     1.78413 
    5.19940     2.59980     1.47220     1.47550     4.42530     5.90170 0.32      121285          16     0.12000     1.81437 
    5.28610     2.64320     1.49700     1.50000     4.49900     6.00000 0.33      125862          16     0.12200     1.84461 
    5.37280     2.68650     1.52240     1.52450     4.57260     6.09830 0.34      131852          11     0.12400     1.87485 
    5.45950     2.72990     1.54600     1.54900     4.64690     6.19650 0.35      136409           7     0.12600     1.90508 
    5.54630     2.77330     1.57080     1.57380     4.72060     6.29460 0.36      142101           9     0.12800     1.93532 
    5.63300     2.81660     1.59620     1.59860     4.79360     6.39310 0.36      147470           4     0.13000     1.96556 
    5.71980     2.86000     1.62100     1.62340     4.86730     6.49170 0.37      153230           9     0.13200     1.99580 
    5.80650     2.90330     1.64580     1.64820     4.94090     6.59000 0.38      158821          11     0.13400     2.02604 
    5.89330     2.94670     1.67000     1.67240     5.01460     6.68830 0.39      165442          11     0.13600     2.05628 
    5.98000     2.99010     1.69480     1.69660     5.08830     6.78660 0.40      170491          10     0.13800     2.08652 
    6.06680     3.03350     1.71960     1.72110     5.16260     6.88460 0.41      177259          18     0.14000     2.11676 
    6.15350     3.07680     1.74380     1.74530     5.23690     6.98320 0.42      183516          14     0.14200     2.14700 
    6.24030     3.12020     1.76730     1.77010     5.31050     7.08150 0.43      190503          23     0.14400     2.17724 
    6.32700     3.16360     1.79280     1.79460     5.38420     7.18000 0.44      197407          13     0.14600     2.20748 
    6.41380     3.20700     1.81700     1.81970     5.45780     7.27810 0.45      204635          20     0.14800     2.23772 
    6.50050     3.25040     1.84180     1.84450     5.53150     7.37660 0.46      211702          27     0.15000     2.26796 
    6.58730     3.29370     1.86590     1.86870     5.60580     7.47520 0.47      218725          51     0.15200     2.29820 
    6.67400     3.33720     1.89070     1.89350     5.67950     7.57350 0.48      226911          42     0.15400     2.32844 
    6.76090     3.38050     1.91490     1.91800     5.75310     7.67150 0.49      233517          44     0.15600     2.35868 
    6.84780     3.42390     1.93970     1.94250     5.82680     7.77010 0.50      240733          37     0.15800     2.38892 
    6.93440     3.46730     1.96520     1.96730     5.90040     7.86810 0.51      249490          56     0.16000     2.41916 
    7.02120     3.51070     1.99060     1.99180     5.97410     7.96670 0.52      258095          74     0.16200     2.44939 
    7.10800     3.55410     2.01480     2.01660     6.04840     8.06500 0.53      267023          80     0.16400     2.47963 
    7.19480     3.59750     2.03900     2.04110     6.12140     8.16350 0.54      274895         108     0.16600     2.50987 
    7.28170     3.64090     2.06380     2.06560     6.19510     8.26160 0.55      284136         110     0.16800     2.54011 
    7.36840     3.68430     2.08860     2.08970     6.26870     8.36010 0.56      292317         119     0.17000     2.57035 
    7.45530     3.72770     2.11210     2.11420     6.34240     8.45840 0.58      301442         157     0.17200     2.60059 
    7.54200     3.77110     2.13630     2.13900     6.41610     8.55670 0.59      310744         172     0.17400     2.63083 
    7.62890     3.81460     2.16110     2.16380     6.49030     8.65500 0.60      321208         198     0.17600     2.66107 
    7.71570     3.85790     2.18530     2.18830     6.56400     8.75360 0.61      329348         184     0.17800     2.69131 
    7.80250     3.90140     2.21070     2.21280     6.63830     8.85190 0.62      339704         231     0.18000     2.72155 
    7.88940     3.94480     2.23490     2.23760     6.71200     8.95040 0.64      350031         212     0.18200     2.75179 
    7.97620     3.98820     2.25910     2.26240     6.78630     9.04870 0.65      360082         185     0.18400     2.78203 
    8.06300     4.03160     2.28390     2.28660     6.85990     9.14700 0.66      370575         183     0.18600     2.81227 
    8.15000     4.07510     2.30750     2.31170     6.93360     9.24510 0.67      381889         129     0.18800     2.84251 
    8.23680     4.11850     2.33290     2.33590     7.00720     9.34340 0.69      391274         136     0.19000     2.87275 
    8.32350     4.16190     2.35830     2.36070     7.08090     9.44190 0.70      403835         107     0.19200     2.90299 
    8.41040     4.20530     2.38310     2.38550     7.15460     9.54020 0.71      415995         105     0.19400     2.93323 
    8.49730     4.24880     2.40730     2.41030     7.22820     9.63880 0.72      427130          73     0.19600     2.96347 
    8.58420     4.29220     2.43210     2.43450     7.30120     9.73710 0.74      440089          78     0.19800     2.99370 
    8.67100     4.33560     2.45630     2.45870     7.37490     9.83540 0.75      450973          76     0.20000     3.02394 
